File: Experiment_RB/Manuel_Paul/Data/XRD/HG1_NaCl_01_55s_4523.ASC
 10.000        7
 10.240        8
 10.480        7
 10.720        5
 10.960        7
 11.200        0
 11.440       10
 11.680        6
 11.920        8
 12.160        5
 12.400        6
 12.640        7
 12.880        4
 13.120        4
 13.360        9
 13.600       13
 13.840        7
 14.080       14
 14.320        6
 14.560       15
 14.800        8
 15.040        4
 15.280       13
 15.520        7
 15.760       14
 16.000        5
 16.240        6
 16.480        4
 16.720        5
 16.960        7
 17.200        2
 17.440        7
 17.680        5
 17.920        4
 18.160        3
 18.400        7
 18.640        6
 18.880        3
 19.120        7
 19.360       11
 19.600        5
 19.840        9
 20.080        3
 20.320       10
 20.560        8
 20.800        2
 21.040       10
 21.280        7
 21.520        6
 21.760       10
 22.000        8
 22.240        5
 22.480        1
 22.720        4
 22.960        5
 23.200        3
 23.440        7
 23.680        2
 23.920        5
 24.160        4
 24.400        8
 24.640        7
 24.880        5
 25.120       10
 25.360        4
 25.600        8
 25.840        8
 26.080        7
 26.320       10
 26.560        4
 26.800        7
 27.040       27
 27.280        8
 27.520        6
 27.760        5
 28.000        8
 28.240        4
 28.480        5
 28.720        4
 28.960        2
 29.200        7
 29.440        8
 29.680        5
 29.920       10
 30.160        8
 30.400       10
 30.640        7
 30.880        6
 31.120       12
 31.360      386
 31.600      117
 31.840       11
 32.080        7
 32.320        6
 32.560        5
 32.800        7
 33.040        6
 33.280        9
 33.520        4
 33.760        6
 34.000        8
 34.240        7
 34.480       10
 34.720        5
 34.960        7
 35.200        7
 35.440        7
 35.680       13
 35.920        7
 36.160        4
 36.400        6
 36.640        9
 36.880        3
 37.120        4
 37.360        3
 37.600        2
 37.840        7
 38.080        6
 38.320        5
 38.560        4
 38.800        9
 39.040        6
 39.280        4
 39.520        5
 39.760        6
 40.000        2
 40.240        5
 40.480        2
 40.720        9
 40.960        7
 41.200        7
 41.440        3
 41.680        5
 41.920        7
 42.160        7
 42.400        7
 42.640        4
 42.880        8
 43.120        6
 43.360        8
 43.600        8
 43.840        6
 44.080        4
 44.320       10
 44.560        5
 44.800       10
 45.040      145
 45.280       84
 45.520       19
 45.760       11
 46.000        4
 46.240        7
 46.480        8
 46.720       10
 46.960        5
 47.200        5
 47.440        5
 47.680        4
 47.920        5
 48.160        3
 48.400        6
 48.640        9
 48.880        7
 49.120        6
 49.360        9
 49.600        7
 49.840        6
 50.080        3
 50.320        6
 50.560        7
 50.800        5
 51.040        8
 51.280        7
 51.520        9
 51.760        5
 52.000        3
 52.240        6
 52.480        6
 52.720        5
 52.960        5
 53.200        6
 53.440       11
 53.680        5
 53.920        6
 54.160        4
 54.400        3
 54.640        8
 54.880        6
 55.120        7
 55.360        2
 55.600       10
 55.840       10
 56.080       35
 56.320       30
 56.560        8
 56.800        4
 57.040        6
 57.280        5
 57.520        8
 57.760        2
 58.000        7
 58.240        3
 58.480        7
 58.720        5
 58.960       12
 59.200       11
 59.440        8
 59.680        1
 59.920        5
 60.160        4
 60.400        8
 60.640        3
 60.880        5
 61.120        7
 61.360        4
 61.600        3
 61.840        4
 62.080        4
 62.320       10
 62.560       10
 62.800        3
 63.040        8
 63.280        8
 63.520        2
 63.760        3
 64.000        6
 64.240        6
 64.480        9
 64.720        9
 64.960        9
 65.200        7
 65.440        7
 65.680       32
 65.920       11
 66.160       11
 66.400        6
 66.640       10
 66.880        8
 67.120        3
 67.360        9
 67.600        2
 67.840        3
 68.080        9
 68.320        4
 68.560        7
 68.800        9
 69.040       10
 69.280       10
 69.520        6
 69.760       10
 70.000        4
 70.240        5
 70.480        4
 70.720        4
 70.960       10
 71.200        7
 71.440        9
 71.680        4
 71.920        5
 72.160        4
 72.400       10
 72.640        6
 72.880       12
 73.120        5
 73.360        5
 73.600        2
 73.840        9
 74.080        7
 74.320        4
 74.560       14
 74.800       23
 75.040       13
 75.280       11
 75.520        8
 75.760        9
 76.000       10
 76.240        5
 76.480        9
 76.720        9
 76.960        5
 77.200        6
 77.440        2
 77.680        7
 77.920        7
 78.160       10
 78.400        7
 78.640        5
 78.880        5
 79.120        6
 79.360        6
 79.600        6
 79.840        8
 80.000       12